# XDI/1.0 BlueSky/1.11.0 BMM/2023-2.1-py310-tiled
# Beamline.name: BMM (06BM) -- Beamline for Materials Measurement (NIST)
# Beamline.xray_source: NSLS-II three-pole wiggler
# Beamline.collimation: paraboloid mirror, 5 nm Rh on 30 nm Pt
# Beamline.focusing: not in use
# Beamline.harmonic_rejection: flat mirror, Si stripe, pitch = 7.0 mrad relative to beam
# Beamline.software: Bluesky 1.11.0, Ophyd 1.8.0, DataBroker 2.0.0b23, Python 3.10.8, 2023-2.1-py310-tiled
# Detector.I0: 10 cm N2
# Detector.I1: 25 cm N2
# Detector.I2: 25 cm N2
# Detector.fluorescence: SII Vortex ME4 (4-element silicon drift)
# Detector.deadtime_correction: Xspress3
# Element.symbol: Fe
# Element.edge: K
# Element.reference: Fe
# Element.reference_material: Fe foil
# Facility.name: NSLS-II
# Facility.energy: 3.0
# Facility.current: 399.1
# Facility.mode: top-off
# Facility.GUP: 315355
# Facility.SAF: 313563
# Facility.cycle: 2024-1
# Mono.name: Si(111)
# Mono.d_spacing: 3.1354173
# Mono.encoder_resolution: 0.0000050 deg/ct
# Mono.angle_offset: 16.0891518 deg
# Mono.scan_mode: pseudo channel cut
# Mono.scan_type: step
# Mono.direction: forward in energy
# Sample.name: Ca(Zn,Mn,Fe,Mg)Si2O6
# Sample.prep: powder on tape
# Sample.x: 113.234 mm
# Sample.y: 81.177 mm
# Sample.SDD_position: 35.000 mm
# Scan.experimenters: Bruce Ravel
# Scan.edge_energy: 7112.0
# Scan.start_time: 2024-03-21T14:37:45
# Scan.end_time: 2024-03-21T14:48:12
# Scan.transient_id: 5354
# Scan.uid: 4acdc768-60fd-4cc5-a6a3-1e3597037b3f
# Scan.hdf5file: 2024/03/21/a46b4428-3f2c-42e3-a019_000000.h5
# Scan.plot_hint: (Fe1+Fe2+Fe3+Fe4)/I0  --  ($8+$9+$10+$11)/$5
# Column.1: energy eV
# Column.2: requested_energy eV
# Column.3: measurement_time seconds
# Column.4: xmu 
# Column.5: I0 nA
# Column.6: It nA
# Column.7: Ir nA
# Column.8: Fe1 
# Column.9: Fe2 
# Column.10: Fe3 
# Column.11: Fe4 
# ///////////
# sample courtesy Martin Stennett, University of Sheffield
# -----------
# energy  requested_energy  measurement_time  xmu  I0  It  Ir  Fe1  Fe2  Fe3  Fe4
  6912.007  6912.000  1.000  21.635705  481.299249  34.525743  4.192353  3328.382855  3290.769347  1716.365716  2077.730546
  6922.018  6922.000  1.000  21.287998  480.691482  34.892867  4.268369  3293.175009  3227.725855  1599.284929  2112.773705
  6932.017  6932.000  1.000  20.555225  480.326333  35.269694  4.345958  3155.593904  3088.621313  1565.262074  2063.738704
  6942.019  6942.000  1.000  19.573300  480.101758  35.668511  4.427802  2940.735313  2918.499476  1556.262833  1981.678040
  6952.006  6952.000  1.000  19.167205  479.718498  36.061986  4.509744  2889.507092  2944.537050  1481.211931  1879.606904
  6962.016  6962.000  1.000  18.544495  479.522004  36.460755  4.593692  2770.241582  2797.435552  1490.230971  1834.585476
  6972.014  6972.000  1.000  17.998915  479.451995  36.870403  4.678503  2700.490944  2744.409592  1398.159724  1786.555334
  6982.009  6982.000  1.000  17.525836  479.206192  37.277816  4.764775  2631.480583  2635.326334  1382.149952  1749.532179
  6992.012  6992.000  1.000  17.551106  478.929725  37.682501  4.850936  2593.665577  2639.344266  1418.196553  1754.540052
  7002.011  7002.000  1.000  16.955721  478.698950  38.097341  4.938550  2535.791784  2526.251237  1360.146079  1694.496901
  7012.013  7012.000  1.000  17.039427  478.539298  38.515675  5.028430  2526.034792  2526.283128  1432.225182  1669.492321
  7022.006  7022.000  1.000  16.457569  478.221323  38.921128  5.116704  2351.420369  2485.262770  1318.134389  1715.543114
  7032.007  7032.000  1.000  16.116095  477.747087  39.324210  5.205985  2392.648518  2386.181537  1313.131988  1607.455273
  7042.010  7042.000  1.000  15.555067  477.554743  39.737416  5.295713  2282.725456  2276.102037  1300.136729  1569.431993
  7052.003  7052.000  1.000  15.035134  477.258850  40.156027  5.386822  2245.168145  2228.062322  1266.105044  1436.315076
  7061.995  7062.000  1.000  15.144374  473.108384  40.240459  5.433054  2255.446055  2140.993050  1254.103347  1514.387959
  7072.005  7072.000  1.000  15.247689  476.151195  40.938675  5.554426  2218.576789  2273.137118  1254.103347  1514.387959
  7081.998  7082.000  1.000  14.526430  475.864988  41.369745  5.634833  2151.202032  2032.922357  1244.108052  1484.386848
  7083.990  7084.000  1.000  14.734282  474.082934  41.305940  5.627990  2117.748826  2082.974764  1285.146514  1499.401513
  7085.998  7086.000  1.000  14.661124  475.156134  41.484471  5.657725  2138.841738  2121.007932  1283.147281  1423.326063
  7087.995  7088.000  1.000  14.646418  475.282215  41.586631  5.673943  2078.640197  2110.002287  1277.141193  1495.398332
  7090.000  7090.000  1.000  14.883281  475.199833  41.661474  5.683779  2159.947246  2104.001747  1310.177165  1498.406295
  7092.001  7092.000  1.000  14.835421  475.114047  41.742131  5.693642  2159.947246  2104.001747  1286.161648  1498.406295
  7094.001  7094.000  1.000  14.752553  475.117159  41.830786  5.703864  2076.570219  2097.001536  1309.182260  1526.436839
  7096.003  7096.000  1.000  14.657764  474.974507  41.909628  5.707989  2129.545946  2030.939751  1294.162695  1507.415995
  7097.997  7098.000  1.000  14.760811  474.918765  41.993618  5.710307  2173.644141  2044.959890  1288.163231  1503.418912
  7100.005  7100.000  1.000  14.639293  474.907256  42.082398  5.708709  2098.722170  2107.029280  1256.141239  1490.413568
  7101.999  7102.000  1.000  14.979389  474.840804  42.163470  5.695731  2083.081294  2107.029280  1432.301070  1490.413568
  7102.295  7102.300  1.000  15.136729  474.620666  42.154644  5.690660  2168.474564  2112.034602  1374.245963  1529.449176
  7102.587  7102.600  1.000  15.062940  474.683056  42.174747  5.689187  2115.373909  2196.113759  1329.203098  1509.431454
  7102.889  7102.900  1.000  15.390646  474.618264  42.185896  5.685320  2244.909165  2117.037596  1387.255747  1555.479148
  7103.186  7103.200  1.000  14.919210  474.746622  42.207674  5.683364  2123.177612  2055.974095  1355.230383  1548.462410
  7103.486  7103.500  1.000  15.383428  474.646026  42.216040  5.677154  2130.787036  2218.141033  1366.248857  1586.505856
  7103.785  7103.800  1.000  15.041052  474.673782  42.227549  5.672288  2093.824951  2147.070984  1367.239885  1531.457454
  7104.091  7104.100  1.000  15.363668  474.662496  42.242323  5.668347  2141.706458  2253.161345  1338.214734  1559.474370
  7104.386  7104.400  1.000  15.265953  474.549245  42.247954  5.661828  2205.676291  2102.031640  1330.209663  1606.529018
  7104.690  7104.700  1.000  15.203366  474.720162  42.276465  5.657683  2118.526050  2131.057723  1419.290049  1548.470373
  7104.992  7105.000  1.000  15.944342  474.588991  42.277982  5.649174  2226.965859  2263.176015  1450.318851  1626.548621
  7105.283  7105.300  1.000  15.375746  474.616064  42.297094  5.641863  2240.805234  2043.966909  1450.318851  1562.484951
  7105.594  7105.600  1.000  15.266965  474.639831  42.305298  5.633449  2169.526933  2123.042579  1413.280736  1540.459262
  7105.891  7105.900  1.000  15.683683  474.636951  42.322345  5.624162  2150.048164  2218.140950  1460.328848  1615.537471
  7106.195  7106.200  1.000  15.850409  474.352367  42.310906  5.607945  2269.705743  2167.097452  1459.330877  1622.544890
  7106.495  7106.500  1.000  15.872299  474.347757  42.323845  5.596610  2230.001571  2198.105263  1505.369815  1595.512650
  7106.795  7106.800  1.000  15.630560  474.289003  42.336068  5.582842  2157.424477  2262.186771  1428.302204  1565.489450
  7107.099  7107.100  1.000  16.213970  474.248801  42.344617  5.566277  2288.348242  2285.207082  1497.361255  1618.539235
  7107.401  7107.400  1.000  16.245667  474.285529  42.358612  5.548015  2247.907228  2320.247014  1427.303810  1709.626607
  7107.700  7107.700  1.000  16.253068  474.109962  42.357117  5.524400  2277.601813  2250.173077  1427.303810  1750.662915
  7108.000  7108.000  1.000  16.567396  473.967399  42.360215  5.497795  2348.203676  2284.202771  1506.371235  1713.627736
  7108.300  7108.300  1.000  16.744415  474.097801  42.392023  5.471414  2348.203676  2275.192632  1566.429841  1748.664164
  7108.602  7108.600  1.000  16.605123  474.149553  42.400168  5.435081  2240.981349  2306.229374  1616.473601  1709.627420
  7108.894  7108.900  1.000  17.145894  473.923579  42.394196  5.392453  2394.431639  2319.236469  1659.509951  1752.665409
  7109.196  7109.200  1.000  16.903562  474.049518  42.418897  5.344024  2294.707319  2361.281116  1604.463897  1752.673216
  7109.496  7109.500  1.000  16.890391  474.004504  42.433617  5.279546  2294.707319  2354.277086  1604.463897  1752.673216
  7109.794  7109.800  1.000  18.216663  473.777194  42.432733  5.188958  2463.790095  2429.354409  1833.675365  1903.819485
  7110.102  7110.100  1.000  18.713085  473.876169  42.449403  5.065544  2503.678117  2594.498048  1840.673867  1928.834881
  7110.398  7110.400  1.000  19.760067  473.725648  42.448744  4.891298  2669.467696  2630.565426  1993.841442  2066.976086
  7110.700  7110.700  1.000  21.125656  473.578914  42.437909  4.642510  2764.762992  2883.808613  2064.895295  2291.198353
  7111.000  7111.000  1.000  22.963728  473.486566  42.437683  4.316281  2878.398953  3018.939957  2325.132937  2650.544927
  7111.300  7111.300  1.000  25.630802  473.366559  42.433161  3.916414  3204.257164  3345.256105  2774.560163  2808.691154
  7111.605  7111.600  1.000  27.921479  473.330217  42.441445  3.493827  3353.632814  3554.483616  3099.867618  3208.095901
  7111.903  7111.900  1.000  31.210280  473.348162  42.448098  3.124011  3782.813954  3869.781696  3513.244314  3607.488496
  7112.201  7112.200  1.000  33.182596  473.145184  42.442164  2.831889  3959.926290  4184.104973  3725.447025  3830.707033
  7112.499  7112.500  1.000  35.156262  473.129253  42.452176  2.615529  4183.476206  4410.338671  3984.702944  4054.938369
  7112.802  7112.800  1.000  36.658919  472.999415  42.455885  2.450524  4391.181744  4560.485408  4220.923781  4167.056067
  7113.104  7113.100  1.000  38.025053  472.853977  42.447147  2.315846  4477.284637  4732.656046  4320.020492  4450.336197
  7113.396  7113.400  1.000  39.122660  472.971001  42.466745  2.204929  4520.327162  4910.875210  4602.319749  4470.361688
  7113.696  7113.700  1.000  40.729231  472.834267  42.472973  2.099751  4801.175033  5013.964012  4645.352009  4797.684952
  7113.997  7114.000  1.000  41.312125  472.855045  42.495853  2.004163  4836.368811  5007.979685  4722.445840  4967.852425
  7114.299  7114.300  1.000  42.328356  472.888373  42.505208  1.920005  4965.996638  5217.174067  4876.575398  4956.841484
  7114.608  7114.600  1.000  43.278120  472.829396  42.509731  1.847325  4888.023789  5319.284909  5158.860433  5096.998321
  7114.907  7114.900  1.000  44.192013  472.694118  42.503683  1.792725  5070.896384  5410.391929  5088.783023  5319.233208
  7115.201  7115.200  1.000  44.977230  472.791172  42.524342  1.753371  5215.264247  5497.451892  5256.948905  5295.172338
  7115.503  7115.500  1.000  45.615720  472.739948  42.528144  1.725193  5332.603243  5630.594841  5301.983878  5299.190969
  7115.808  7115.800  1.000  46.038320  472.815455  42.550701  1.705759  5332.603243  5556.530762  5293.997481  5584.497673
  7116.107  7116.100  1.000  45.227585  472.751913  42.557143  1.689225  5269.704634  5589.573434  5268.980583  5253.168540
  7116.407  7116.400  1.000  45.602035  472.620510  42.556453  1.673300  5253.557450  5628.621163  5334.036144  5336.242472
  7116.706  7116.700  1.000  46.454517  472.584494  42.571519  1.651680  5439.580970  5446.418097  5556.244831  5511.440426
  7117.002  7117.000  1.000  46.542515  472.372780  42.554659  1.618112  5400.263401  5653.628894  5418.110036  5513.415084
  7117.303  7117.300  1.000  47.731413  472.572334  42.591195  1.571162  5470.892435  5802.779351  5564.235681  5718.637805
  7117.603  7117.600  1.000  48.734638  472.492584  42.589178  1.505584  5746.878519  5865.848691  5673.366877  5740.661168
  7117.898  7117.900  1.000  49.830692  472.274087  42.579956  1.426652  5785.383502  6103.099667  5944.636273  5700.624964
  7118.201  7118.200  1.000  51.494252  472.266058  42.588513  1.335693  5795.808632  6207.231284  6228.920683  6087.026857
  7118.499  7118.500  1.000  53.219769  472.137479  42.591086  1.241106  6034.392418  6440.424565  6350.013320  6302.217469
  7118.804  7118.800  1.000  54.025822  472.176392  42.602153  1.149289  6141.671846  6447.480685  6354.035714  6566.529363
  7119.107  7119.100  1.000  55.146046  472.060042  42.603557  1.061739  6141.671846  6447.480685  6576.256667  6866.835695
  7119.412  7119.400  1.000  58.028840  471.868145  42.595291  0.979623  6541.365516  6930.987822  7035.739553  6873.868387
  7119.705  7119.700  1.000  59.960288  472.047677  42.620774  0.906138  6743.838810  7135.176739  7242.927969  7182.171327
  7120.006  7120.000  1.000  62.694032  471.950555  42.622823  0.832663  6845.921258  7493.597009  7601.280335  7647.684605
  7120.311  7120.300  1.000  64.677363  473.673096  42.784996  0.766197  7296.653504  7715.871829  7877.606144  7745.795098
  7120.610  7120.600  1.000  67.471083  473.517056  42.778824  0.701239  7579.367614  7983.137212  8265.015537  8121.188210
  7120.909  7120.900  1.000  69.516659  473.529666  42.787976  0.643722  7617.868381  8248.445687  8536.263445  8515.622836
  7121.207  7121.200  1.000  71.358798  473.328647  42.788917  0.592699  7764.042509  8515.724573  8749.514613  8746.881716
  7121.511  7121.500  1.000  72.754516  473.259247  42.795278  0.550083  8135.397573  8531.729773  8968.712342  8795.907639
  7121.838  7121.800  1.000  74.127505  473.241736  42.796129  0.511690  8160.057406  8834.112608  9201.009652  8885.049558
  7122.085  7122.100  1.000  75.869984  473.482605  42.826511  0.486205  8358.317777  8757.012608  9423.228192  9384.559255
  7122.408  7122.400  1.000  77.725611  473.288348  42.818785  0.457644  8605.213595  9010.256913  9728.518529  9442.637063
  7122.722  7122.700  1.000  80.484156  473.119090  42.816590  0.431326  8967.162826  9521.827836  9805.609645  9783.990214
  7123.023  7123.000  1.000  82.417717  473.188819  42.833494  0.410598  8920.541339  9742.121090  10089.952503  10246.527310
  7123.363  7123.300  1.000  85.013705  473.339861  42.852618  0.393871  9202.621151  10207.654495  10489.397118  10340.702655
  7123.666  7123.600  1.000  86.275880  473.150746  42.852522  0.377184  9319.420922  10150.538924  10796.671728  10554.865471
  7123.939  7123.900  1.000  88.599298  472.834210  42.825678  0.363570  9683.968707  10606.044074  10874.734751  10728.031530
  7124.239  7124.200  1.000  90.727202  472.683665  42.826683  0.350646  10075.661408  10342.808493  11203.104266  11263.692024
  7124.544  7124.500  1.000  91.879658  472.855067  42.852582  0.338891  10035.465885  10706.206320  11407.363760  11296.725891
  7124.818  7124.800  1.000  94.090504  472.563602  42.838116  0.328106  10202.681209  10992.465966  11761.679967  11506.920194
  7125.110  7125.100  1.000  95.127545  472.653926  42.858675  0.318073  10379.014217  11136.623990  11802.705807  11644.063427
  7125.416  7125.400  1.000  96.393558  472.612999  42.857958  0.308097  10477.745148  11327.908747  11907.872478  11843.322269
  7125.700  7125.700  1.000  97.505484  472.523321  42.862609  0.299043  10621.943881  11305.954634  12087.088178  12058.628281
  7126.010  7126.000  1.000  98.911833  472.492870  42.869581  0.290362  10621.943881  11607.194373  12463.420922  12042.576698
  7126.301  7126.300  1.000  100.697038  472.504532  42.877143  0.281628  10658.583177  11764.407627  12672.712507  12484.103349
  7126.602  7126.600  1.000  102.260424  472.342528  42.864968  0.272693  11123.517030  11995.638155  12762.831146  12419.960884
  7126.902  7126.900  1.000  104.066504  472.048686  42.847015  0.263450  11198.081346  12307.042234  12893.989923  12725.343035
  7127.206  7127.200  1.000  105.631974  472.029923  42.860762  0.253987  11324.316796  12340.132060  13258.369775  12938.633798
  7127.509  7127.500  1.000  107.633214  472.046642  42.871409  0.244007  11419.787611  12434.210572  13540.759818  13413.139330
  7127.807  7127.800  1.000  109.889138  472.120380  42.888720  0.233815  11888.286235  12704.452586  13726.895773  13561.266999
  7128.104  7128.100  1.000  111.580382  471.965301  42.877100  0.223726  12087.557502  12931.812469  13978.241069  13664.457375
  7128.403  7128.400  1.000  114.384895  471.835647  42.873198  0.213089  12247.039058  13521.456973  14188.489678  14013.885062
  7128.705  7128.700  1.000  115.444547  471.575848  42.866248  0.202704  12519.937709  13237.132956  14520.751307  14163.038354
  7129.007  7129.000  1.000  116.564501  471.554446  42.880875  0.192641  12585.172349  13548.504521  14616.751447  14216.080458
  7129.304  7129.300  1.000  117.875372  471.471540  42.885339  0.183281  12589.709287  13675.668864  14806.090963  14503.414269
  7129.600  7129.600  1.000  119.544837  471.544032  42.908400  0.174909  12985.011945  13685.692960  15018.296363  14681.653253
  7129.903  7129.900  1.000  120.579044  471.359537  42.901429  0.167297  12824.646269  13805.825731  15225.628578  14979.981810
  7130.199  7130.200  1.000  121.278930  470.953927  42.868111  0.161106  12771.055769  14140.193284  15114.449464  15091.089974
  7130.503  7130.500  1.000  121.103949  471.137954  42.896687  0.156425  12771.055769  14140.193284  15054.327604  15091.089974
  7130.803  7130.800  1.000  120.880189  470.828662  42.878688  0.153325  12947.505308  14168.226948  15033.386335  14764.738884
  7131.098  7131.100  1.000  121.109963  470.742049  42.886099  0.151990  12935.230079  13917.906426  15243.534155  14914.881221
  7131.404  7131.400  1.000  120.161849  470.825329  42.901193  0.152370  12619.759448  14147.228607  15054.483765  14753.770347
  7131.708  7131.700  1.000  119.855954  470.704575  42.902934  0.155171  12646.748313  13681.666576  15280.583562  14807.747340
  7132.006  7132.000  1.000  119.159085  470.502958  42.906392  0.159147  12587.796636  13806.808320  14933.347228  14736.749574
  7132.304  7132.300  1.000  117.810190  470.555130  42.924913  0.164843  12580.081760  13589.596926  14773.117001  14493.393655
  7132.606  7132.600  1.000  117.673621  470.463205  42.928857  0.171385  12580.081760  13589.596926  14773.117001  14418.313370
  7132.906  7132.900  1.000  117.891498  470.561408  42.957228  0.178965  12837.380270  13651.645144  14805.118842  14181.044887
  7133.203  7133.200  1.000  117.303835  470.350256  42.954965  0.186925  12497.962141  13539.518087  14672.026212  14464.382550
  7133.501  7133.500  1.000  116.531426  470.551652  42.989233  0.195443  12483.571597  13488.414394  14594.881893  14267.187282
  7133.799  7133.800  1.000  115.151687  470.427432  42.992852  0.203564  12435.718033  13126.035177  14400.680813  14208.078363
  7134.097  7134.100  1.000  114.678949  470.354938  43.004835  0.211454  12196.889314  13126.084288  14438.722482  14178.113732
  7134.405  7134.400  1.000  111.398589  470.570498  43.037612  0.218993  12133.577349  12802.715229  13656.914213  13827.682618
  7134.699  7134.700  1.000  112.249492  470.516140  43.044424  0.225433  12133.577349  12949.832201  13845.088799  13886.699283
  7134.997  7135.000  1.000  111.719879  470.520951  43.055656  0.231730  11962.814004  12801.723127  13927.217986  13874.788482
  7135.304  7135.300  1.000  112.048250  470.493732  43.071590  0.237094  12135.706942  12916.762811  13963.050007  13702.479448
  7135.602  7135.600  1.000  112.233391  470.451964  43.085349  0.241668  11981.624020  13055.953877  13932.150574  13830.690825
  7135.906  7135.900  1.000  110.450191  470.249796  43.085569  0.245085  11772.037956  12797.685365  13658.909587  13710.546928
  7136.204  7136.200  1.000  110.312998  470.307041  43.110089  0.248077  11753.909636  12797.685365  13909.185320  13420.199615
  7136.500  7136.500  1.000  110.135834  470.312094  43.131506  0.249786  11807.347282  12916.820998  13619.823135  13454.223169
  7136.805  7136.800  1.000  110.112974  470.000296  43.110893  0.250911  11866.529927  12705.532186  13632.743546  13548.324512
  7137.001  7137.000  1.000  110.433863  470.102283  43.127252  0.251048  11982.485835  12614.462312  13808.951738  13509.311126
  7137.997  7137.990  1.000  108.859873  470.161518  43.181504  0.247085  11770.570189  12580.383956  13496.675205  13334.093674
  7139.009  7138.990  1.000  108.522409  470.002175  43.208625  0.236672  11568.628420  12580.383956  13522.662489  13334.093674
  7140.038  7140.010  1.000  109.808841  470.054546  43.260385  0.225269  11649.281403  12775.666130  13811.013554  13380.184036
  7141.065  7141.060  1.000  109.354350  469.923067  43.292088  0.218137  11600.520646  12776.624353  13590.764082  13420.222286
  7142.120  7142.120  1.000  109.589212  469.729523  43.310058  0.217022  11534.390182  12819.719504  13663.929559  13459.249176
  7143.204  7143.200  1.000  108.964514  469.745622  43.362087  0.220609  11702.231710  12709.553945  13527.764706  13246.053106
  7144.317  7144.300  1.000  108.417197  469.624003  43.407963  0.224391  11709.416823  12437.221077  13483.646835  13285.033183
  7145.434  7145.420  1.000  106.611243  469.564151  43.454769  0.223547  11385.374490  12465.304531  13288.473883  12921.664858
  7146.567  7146.560  1.000  106.299560  469.447023  43.493780  0.215827  11282.523450  12375.228965  13231.447155  13012.812486
  7147.724  7147.710  1.000  106.312725  469.545532  43.554719  0.203147  11258.174290  12378.240230  13288.497827  12993.752624
  7148.907  7148.890  1.000  106.971033  469.578387  43.614124  0.189961  11407.379367  12401.319637  13342.648732  13079.937528
  7150.100  7150.080  1.000  106.356984  469.604380  43.672695  0.181258  11205.928422  12296.225513  13412.685166  13030.866670
  7151.316  7151.300  1.000  105.615451  469.574918  43.726029  0.176206  11503.541018  12130.971344  13066.188719  12893.665548
  7152.549  7152.530  1.000  105.718512  469.366253  43.754586  0.172837  11503.541018  12047.946422  13284.623750  12784.590855
  7153.803  7153.780  1.000  105.062822  469.205163  43.799943  0.171081  11079.913152  12254.140114  13098.298410  12863.667039
  7155.063  7155.050  1.000  106.015224  469.215164  43.863113  0.172970  11276.432090  12177.078030  13224.525584  13065.914909
  7156.355  7156.340  1.000  105.234898  469.222319  43.923348  0.176293  11276.432090  12177.078030  13224.525584  12700.527208
  7157.665  7157.650  1.000  104.245619  469.446704  44.012201  0.179410  11178.899744  12075.980774  12944.269367  12738.612198
  7159.000  7158.980  1.000  103.889398  469.321214  44.061824  0.181006  10970.549226  12169.113284  12907.274521  12710.561251
  7160.339  7160.330  1.000  105.349708  469.093810  44.102263  0.181514  11214.589724  12251.186258  13028.345458  12924.774291
  7161.719  7161.700  1.000  104.523476  468.904913  44.144879  0.183044  11069.376448  12133.108914  12948.369874  12860.716311
  7163.094  7163.080  1.000  103.982124  468.652867  44.183356  0.186111  11091.945582  11958.817760  12949.191052  12731.566315
  7164.500  7164.490  1.000  105.780940  468.609300  44.244378  0.190431  11355.553022  12148.105528  13016.306280  13049.967417
  7165.921  7165.910  1.000  106.042306  468.507402  44.303599  0.193857  11208.069480  12166.070618  13304.595836  13002.869547
  7167.363  7167.350  1.000  106.950926  468.259325  44.341548  0.196664  11259.612110  12349.364173  13413.768767  13058.023538
  7168.819  7168.810  1.000  107.395570  469.593638  44.533123  0.199741  11287.600390  12429.517878  13493.894362  13221.263632
  7170.300  7170.290  1.000  107.473522  469.498232  44.592946  0.203798  11410.042563  12507.602017  13461.900290  13079.083594
  7171.801  7171.790  1.000  107.729909  469.229375  44.632736  0.210024  11544.443253  12397.486606  13360.815955  13247.292210
  7173.320  7173.310  1.000  107.482924  469.060056  44.689828  0.219237  11409.355865  12457.554754  13541.023459  13008.012430
  7174.864  7174.850  1.000  107.479003  468.904405  44.744434  0.231325  11468.762925  12272.370134  13464.978367  13191.266722
  7176.426  7176.410  1.000  107.010307  468.817136  44.810985  0.245402  11289.580765  12330.481378  13457.024275  13091.179093
  7177.987  7177.980  1.000  106.711084  468.643751  44.869951  0.258693  11320.117947  12186.303330  13343.823904  13159.237345
  7179.598  7179.580  1.000  106.669894  468.824714  44.964164  0.267854  11320.117947  12186.303330  13343.823904  13159.237345
  7181.199  7181.190  1.000  106.121577  468.708144  45.030374  0.270625  11314.809957  12150.318116  13238.798008  13036.121416
  7182.839  7182.830  1.000  106.750349  468.459491  45.070265  0.268434  11346.755659  12243.394120  13280.856286  13137.207928
  7184.492  7184.480  1.000  106.789194  468.271372  45.130045  0.263383  11207.761638  12329.473957  13322.866643  13146.219975
  7186.155  7186.150  1.000  107.659240  468.147346  45.187703  0.253592  11417.404049  12360.595110  13264.881569  13357.506959
  7187.854  7187.840  1.000  107.818236  468.198109  45.264610  0.241215  11412.409256  12542.710123  13490.072037  13035.102715
  7189.558  7189.550  1.000  108.969913  460.173124  44.567066  0.225175  11280.784162  12284.327574  13274.637569  13305.275767
  7191.293  7191.280  1.000  109.343456  467.341724  45.338326  0.215719  11345.029895  12730.953284  13470.022499  13554.753541
  7193.043  7193.030  1.000  110.482450  467.635433  45.448810  0.204609  11853.715103  12498.730168  13874.415556  13438.647492
  7194.797  7194.790  1.000  110.201603  467.663672  45.534415  0.200942  11736.280985  12399.650465  13868.534783  13532.819999
  7196.590  7196.580  1.000  110.653371  467.727110  45.629709  0.205719  11736.280985  12617.945827  13868.534783  13532.819999
  7198.389  7198.380  1.000  109.390884  467.636899  45.698649  0.216341  11566.222298  12617.945827  13588.332161  13382.713496
  7200.217  7200.210  1.000  108.039823  467.330834  45.747986  0.231609  11255.716446  12351.662019  13606.388113  13276.574066
  7202.059  7202.050  1.000  107.389897  467.033936  45.804200  0.249417  11322.793600  12428.690513  13284.928454  13118.313758
  7203.924  7203.910  1.000  107.499048  467.212073  45.916964  0.270817  11442.832535  12383.712020  13286.931717  13111.376827
  7205.799  7205.790  1.000  106.631024  466.989574  45.985637  0.290563  11262.870412  12282.570091  13315.985317  12934.150483
  7207.695  7207.690  1.000  106.435067  466.796234  46.055935  0.300542  11262.870412  12282.570091  13315.985317  12822.062634
  7209.620  7209.610  1.000  105.738017  466.696936  46.128697  0.291626  11215.124216  12018.350134  13383.152386  12730.981838
  7211.556  7211.550  1.000  107.694115  466.803361  46.237070  0.263527  11313.479071  12276.665617  13455.253019  13226.577049
  7213.519  7213.510  1.000  109.415166  466.362502  46.290508  0.223746  11487.912263  12387.819077  13781.596644  13369.802416
  7215.494  7215.480  1.000  111.542524  465.847394  46.320079  0.187408  11825.069804  12693.130628  13921.676618  13521.917249
  7217.490  7217.480  1.000  113.193264  465.960186  46.420052  0.161471  11868.758127  12817.371478  14219.062292  13838.362353
  7219.503  7219.490  1.000  114.467592  465.350155  46.445922  0.147231  12196.610790  12919.423729  14201.021170  13950.455925
  7221.528  7221.520  1.000  114.085044  465.247393  46.529501  0.144547  12077.822036  12837.366939  14350.275011  13812.305283
  7223.594  7223.580  1.000  113.135950  464.862205  46.596462  0.154218  11880.985524  12804.313782  14101.961868  13805.366103
  7225.664  7225.650  1.000  112.090809  463.521438  46.566491  0.173545  11714.451509  12581.080746  13938.748803  13722.211798
  7227.752  7227.740  1.000  109.812225  464.581038  46.766920  0.201482  11470.201641  12362.840664  13730.695144  13452.939865
  7229.857  7229.850  1.000  108.253901  464.721577  46.878460  0.233941  11460.214841  12218.741961  13393.279785  13235.687019
  7231.993  7231.980  1.000  106.936098  464.518287  46.963804  0.269562  11182.471852  12065.549310  13389.266468  13036.485529
  7234.127  7234.120  1.000  105.272439  464.250784  47.048457  0.303098  10912.123393  11966.408510  13280.160506  12714.119703
  7236.308  7236.290  1.000  104.387087  464.437618  47.170645  0.328025  10803.077726  11820.180536  13104.886794  12753.145188
  7238.487  7238.480  1.000  104.146433  464.253282  47.252933  0.339752  10841.103943  11924.397657  12860.690080  12724.131776
  7240.693  7240.680  1.000  104.284721  463.637656  47.288732  0.337865  10841.103943  11924.397657  12860.690080  12724.131776
  7242.908  7242.900  1.000  105.090763  463.260382  47.347477  0.326708  10917.733454  11855.367223  13004.891211  12906.395347
  7245.157  7245.150  1.000  106.342779  463.108938  47.432826  0.311190  10916.940749  12227.814679  13310.274642  12793.261486
  7247.420  7247.410  1.000  107.253854  454.650201  46.664810  0.292845  11128.095575  11890.200798  13039.743110  12704.946892
  7249.707  7249.690  1.000  108.036737  462.518038  47.582803  0.292445  11164.890242  12396.042392  13422.436540  12985.570335
  7252.002  7251.990  1.000  107.606258  462.619490  47.709710  0.296550  11248.949464  11905.551345  13351.348231  13274.903275
  7254.316  7254.310  1.000  108.086080  461.564532  47.709578  0.305212  11248.949464  12312.918061  13351.348231  12975.485221
  7256.666  7256.650  1.000  108.262240  462.234098  47.890967  0.312876  11242.480846  12267.887402  13505.513063  13026.617369
  7259.006  7259.000  1.000  108.246030  461.916481  47.967889  0.311212  11083.340068  12047.684061  13578.638829  13290.962340
  7261.394  7261.380  1.000  108.279196  460.407461  47.911252  0.301972  11083.340068  12169.831318  13465.561528  13133.816790
  7263.780  7263.770  1.000  110.606651  421.412477  43.814755  0.273344  10365.855466  11339.855394  12510.407072  12394.904989
  7266.199  7266.190  1.000  109.058490  461.390425  48.245892  0.289316  11433.150380  12170.888962  13437.528190  13276.975306
  7268.637  7268.620  1.000  110.107008  462.931296  48.514181  0.283224  11299.401010  12546.412692  13634.843100  13491.323148
  7271.082  7271.070  1.000  111.430376  462.214818  48.546711  0.270213  11742.089844  12489.346200  13825.064175  13448.270720
  7273.559  7273.550  1.000  110.928776  459.713867  48.409813  0.255357  11454.831825  12429.332107  13774.049394  13337.283066
  7276.054  7276.040  1.000  111.696299  462.373270  48.796560  0.249326  11598.215642  12546.412221  13979.344818  13521.410223
  7278.560  7278.550  1.000  111.141842  462.379526  48.925511  0.245633  11444.417772  12584.544430  13888.275233  13472.474862
  7281.086  7281.070  1.000  112.491874  459.782225  48.751568  0.238365  11444.417772  12584.544430  13987.283420  13705.518457
  7283.634  7283.620  1.000  112.690832  461.160862  49.028217  0.230292  11714.998693  12679.716078  13989.337600  13584.548916
  7286.204  7286.190  1.000  113.014259  461.215182  49.153195  0.223149  11828.205926  12468.440012  14044.459831  13782.786156
  7288.785  7288.770  1.000  113.351184  461.167946  49.271083  0.220477  11611.584197  12803.880991  14104.603612  13753.864093
  7291.389  7291.380  1.000  113.200109  461.023566  49.381844  0.228970  11400.470631  12831.948418  14077.543232  13877.955527
  7294.007  7294.000  1.000  112.723076  460.967767  49.507218  0.249319  11400.470631  12831.948418  13851.330173  13877.955527
  7296.664  7296.650  1.000  110.563541  460.725842  49.616402  0.276203  11438.288383  12460.555019  13640.172686  13400.464512
  7299.323  7299.310  1.000  110.474264  460.281904  49.691253  0.302481  11439.361123  12439.492475  13708.176705  13262.274533
  7301.995  7301.990  1.000  109.581266  457.495636  49.508680  0.324400  11469.004341  12038.969418  13418.838927  13206.138401
  7304.706  7304.690  1.000  108.676879  460.580929  49.979836  0.345471  11219.987134  12265.367038  13409.878299  13159.265611
  7307.421  7307.410  1.000  108.041141  460.195207  50.069295  0.357922  10949.700813  12525.649216  13180.553181  13064.112115
  7310.163  7310.150  1.000  107.356490  460.060296  50.183090  0.363326  11231.821261  11963.000000  13335.772074  12859.865079
  7312.909  7312.900  1.000  107.874455  459.653507  50.265341  0.363819  11014.647178  12186.293303  13538.053339  12845.877814
  7315.692  7315.680  1.000  106.788385  459.356565  50.370272  0.364718  11010.204594  11976.110103  13102.555175  12965.075992
  7318.479  7318.470  1.000  107.289016  459.113209  50.476988  0.366818  11025.029774  11879.918364  13342.798036  13010.058369
  7321.300  7321.290  1.000  108.461510  458.875069  50.593401  0.369383  11012.803223  12174.270375  13610.161249  12973.047964
  7324.133  7324.120  1.000  107.423443  458.754065  50.721764  0.371790  11165.151155  12034.131380  13119.557663  12962.100725
  7326.977  7326.970  1.000  108.066710  458.617253  50.846250  0.373260  11118.634227  12161.446735  13356.028744  12925.147990
  7329.857  7329.850  1.000  108.386202  458.245337  50.948007  0.376014  11193.106621  12050.223481  13455.034863  12969.106617
  7332.756  7332.740  1.000  107.577178  457.846577  51.036556  0.383655  11031.586037  12048.281280  13219.842948  12954.132248
  7335.662  7335.650  1.000  107.289142  457.967633  51.189106  0.393952  11124.882744  12023.258533  13219.840963  12766.972187
  7338.579  7338.570  1.000  108.022800  457.799124  51.318615  0.399792  11193.228526  11975.265235  13411.129470  12873.120002
  7341.531  7341.520  1.000  108.188172  449.222904  50.490718  0.389987  10779.468500  11905.904608  13094.444520  12820.787375
  7344.504  7344.490  1.000  109.133074  457.084121  51.519650  0.384009  11095.888307  12235.552048  13452.158605  13099.396088
  7347.481  7347.470  1.000  109.529939  456.812589  51.631987  0.364328  11056.023120  12273.688537  13446.298735  13258.644745
  7350.494  7350.480  1.000  110.987179  456.611634  51.756026  0.345775  11423.192783  12277.687644  13566.292813  13410.863752
  7353.508  7353.500  1.000  112.398906  456.332862  51.869656  0.330286  11479.767698  12482.942238  13873.705249  13454.899192
  7356.562  7356.550  1.000  111.879187  456.088579  51.990736  0.317692  11262.199207  12429.908277  13933.847180  13400.864655
  7359.621  7359.610  1.000  112.660689  456.170147  52.152773  0.307097  11483.634323  12411.908253  14076.992209  13419.908169
  7362.704  7362.690  1.000  114.852530  455.937291  52.259375  0.299448  11429.113313  12876.559229  14230.357127  13829.521654
  7365.798  7365.790  1.000  113.479896  455.717860  52.387897  0.297000  11641.623439  12473.044831  14078.043380  13522.103685
  7368.921  7368.910  1.000  113.715141  455.607998  52.534647  0.301579  11640.026375  12619.275791  13834.879543  13715.345821
  7372.064  7372.050  1.000  112.433564  455.268712  52.642076  0.314493  11492.102358  12422.201514  13752.878083  13520.301809
  7375.211  7375.200  1.000  112.646398  454.715663  52.743419  0.338784  11341.850179  12635.336297  13811.848620  13433.046656
  7378.390  7378.380  1.000  111.217771  454.270943  52.861602  0.373771  11252.396337  12294.942812  13790.871611  13184.790806
  7381.577  7381.570  1.000  110.737382  454.063468  52.990328  0.415023  11385.585309  12101.742948  13640.708511  13153.763018
  7384.792  7384.790  1.000  109.510306  453.785848  53.114087  0.447445  11113.482587  12095.683404  13366.388262  13118.672591
  7388.029  7388.020  1.000  108.974027  453.472276  53.229816  0.460274  11020.054463  12084.706937  13411.442310  12900.496440
  7391.283  7391.270  1.000  109.562390  453.209523  53.357007  0.459596  10896.492174  12078.763571  13597.732107  13081.730495
  7394.567  7394.550  1.000  109.638487  453.351784  53.545934  0.453423  11166.718406  12010.746795  13453.564301  13073.774040
  7397.850  7397.840  1.000  109.851468  453.166662  53.682032  0.448851  11166.718406  12141.900996  13428.624245  13043.779591
  7401.154  7401.150  1.000  109.951396  452.549311  53.767134  0.449368  11087.385083  12057.741191  13660.729347  12952.573081
  7404.478  7404.470  1.000  109.902159  452.692882  53.953654  0.452764  11124.530290  12023.769096  13453.667341  13149.958338
  7407.831  7407.820  1.000  110.475731  453.697593  54.226028  0.455042  11267.921381  12011.792973  13498.627740  13344.231131
  7411.206  7411.190  1.000  111.190052  453.196771  54.327051  0.454667  11059.683480  12122.973994  13899.129113  13309.186176
  7414.583  7414.570  1.000  110.874648  452.830771  54.449222  0.455341  11155.371136  12170.055576  13550.748722  13331.277032
  7417.999  7417.980  1.000  109.843691  452.316537  54.547708  0.457965  10978.393107  12090.934723  13586.889570  13027.900432
  7421.416  7421.400  1.000  109.797960  452.076328  54.691681  0.464900  10978.393107  12090.934723  13438.697448  13129.033217
  7424.867  7424.850  1.000  110.140015  451.860063  54.832530  0.475813  11139.160465  11962.859217  13478.762443  13187.091756
  7428.324  7428.310  1.000  110.232581  451.534578  54.963135  0.484706  10951.700306  12200.210460  13514.814571  13107.096376
  7431.795  7431.790  1.000  110.435628  451.381098  55.117458  0.486671  11053.445839  12066.026728  13616.997461  13112.084965
  7435.296  7435.290  1.000  110.772542  450.623133  55.185160  0.484735  10967.210931  12164.192316  13559.986758  13225.279867
  7438.807  7438.810  1.000  112.087729  450.081958  55.289344  0.478961  11144.772012  12303.369831  13578.001717  13422.520818
  7442.352  7442.350  1.000  112.172186  450.030614  55.466981  0.467678  11218.939684  12152.217767  13807.348461  13302.411894
  7445.901  7445.900  1.000  112.473182  439.539539  54.378314  0.444391  10992.194978  11915.645371  13409.618223  13118.951867
  7449.496  7449.480  1.000  112.839510  449.795415  55.784317  0.447464  11295.175905  12342.549143  13620.230591  13496.738531
  7453.085  7453.080  1.000  112.783869  447.740780  55.691035  0.443728  11298.984345  12203.302025  13652.139431  13343.511805
  7456.699  7456.690  1.000  114.073245  448.610247  55.987946  0.446732  11533.579740  12368.658258  13862.493638  13409.694779
  7460.333  7460.320  1.000  112.855536  448.477589  56.156504  0.451089  11125.330080  12384.691404  13582.286563  13520.870880
  7463.992  7463.980  1.000  112.316476  448.222682  56.303370  0.459063  11031.225456  12249.519989  13750.469496  13311.576950
  7467.660  7467.650  1.000  113.571965  439.456229  55.341143  0.464983  10853.355115  11970.947224  13708.165054  13377.440249
  7471.352  7471.340  1.000  113.036810  447.585935  56.584814  0.489969  10925.688284  12242.506971  14043.777091  13381.714139
  7475.063  7475.050  1.000  112.791533  447.005852  56.695165  0.506665  11230.991108  12174.464614  13705.384316  13307.635253
  7478.785  7478.780  1.000  112.010035  446.459273  56.814056  0.520279  11029.454292  12174.532878  13626.378609  13177.553192
  7482.532  7482.520  1.000  111.973255  445.949527  56.931199  0.532676  11030.246164  12178.452934  13619.323994  13106.396801
  7486.288  7486.290  1.000  112.353145  445.465205  57.054777  0.548549  10984.860921  12269.647481  13547.296763  13247.611389
  7490.095  7490.080  1.000  112.593315  445.079533  57.198298  0.565281  10965.312531  12236.614073  13406.105803  13504.947741
  7493.892  7493.880  1.000  112.777029  444.634297  57.331417  0.578202  11159.001438  12121.515995  13541.279030  13322.738399
  7497.727  7497.710  1.000  111.939638  444.013886  57.430947  0.583665  11014.317799  12067.512335  13473.305268  13147.618140
  7501.558  7501.550  1.000  112.672891  443.466177  57.545346  0.582712  11166.158077  12127.551159  13422.190056  13250.716817
  7505.413  7505.410  1.000  112.544158  443.076058  57.683202  0.581474  11076.951092  12151.679160  13562.440943  13074.550463
  7509.296  7509.290  1.000  113.416258  442.576350  57.805896  0.582116  11005.190101  12083.565747  13719.639222  13386.958476
  7513.190  7513.190  1.000  112.062867  441.976828  57.920501  0.585970  11031.837619  12040.527163  13444.350222  13012.475627
  7517.108  7517.110  1.000  113.251581  441.320747  58.024847  0.592451  11024.367305  12118.622874  13650.567909  13186.714204
  7521.044  7521.050  1.000  112.763700  440.754309  58.144616  0.597563  11024.367305  12003.521454  13400.320125  13272.878002
  7525.009  7525.010  1.000  113.856711  440.276340  58.257804  0.601037  11146.305965  12209.775335  13622.612650  13149.721888
  7528.975  7528.980  1.000  113.554866  439.706997  58.372587  0.602051  10997.960879  12085.613555  13705.654127  13141.640646
  7532.975  7532.980  1.000  114.044776  439.326059  58.514669  0.603376  11028.432176  12146.804055  13759.790084  13167.815674
  7536.977  7536.990  1.000  115.372633  438.695188  58.628981  0.607396  11146.431675  12201.855396  13795.891562  13469.240168
  7541.020  7541.030  1.000  114.193418  438.114735  58.748308  0.613407  10936.414749  12051.640921  13788.850882  13252.912583
  7545.067  7545.080  1.000  114.035607  437.385131  58.834938  0.619267  10972.317104  12050.667977  13654.645569  13199.848496
  7549.141  7549.150  1.000  114.150553  436.396356  58.890408  0.624050  11031.806570  12050.667977  13532.562377  13199.848496
  7553.239  7553.240  1.000  114.150619  435.992429  59.048617  0.625678  10955.504806  12037.701225  13534.602772  13240.996684
  7557.351  7557.350  1.000  115.665216  435.438282  59.178334  0.622985  11300.498667  12193.902373  13677.764709  13192.897342
  7561.477  7561.480  1.000  114.882271  434.785091  59.277903  0.620014  11046.530643  12023.738171  13552.738693  13326.091090
  7565.635  7565.630  1.000  115.374088  434.413169  59.417670  0.620767  10991.976397  12203.004698  13760.079572  13164.962441
  7569.790  7569.790  1.000  114.566829  433.779010  59.533625  0.626791  10930.206975  11888.581472  13719.948812  13157.948304
  7573.977  7573.980  1.000  116.519751  433.054096  59.646679  0.638442  11117.071071  12375.230734  13578.778662  13388.274769
  7578.183  7578.180  1.000  115.550518  432.545456  59.761868  0.655515  11229.247771  12055.868839  13562.786366  13132.948278
  7582.409  7582.410  1.000  115.427021  431.918619  59.885905  0.672750  11118.603123  11961.707816  13540.697077  13234.071666
  7586.650  7586.650  1.000  116.387235  431.345633  60.000641  0.686659  11110.218849  12146.943319  13631.772236  13314.190996
  7590.913  7590.910  1.000  116.267781  430.406713  60.071848  0.696692  11035.439273  12146.943319  13692.037561  13168.013282
  7595.185  7595.190  1.000  115.874947  429.489895  60.147934  0.702693  10859.208921  12074.932421  13786.094457  13046.883037
  7599.490  7599.490  1.000  116.119305  428.480703  60.202984  0.705680  11188.336560  11985.815583  13446.697312  13134.031765
  7603.809  7603.810  1.000  115.951247  426.379909  60.105125  0.709061  10941.944345  11960.786743  13460.633517  13075.917339
  7608.151  7608.150  1.000  116.491558  425.606075  60.196563  0.717858  10960.840093  12027.954029  13463.691487  13127.029247
  7612.501  7612.510  1.000  116.735189  424.717818  60.272587  0.728508  10960.840093  12027.954029  13463.691487  13127.029247
  7616.880  7616.890  1.000  117.292106  424.450595  60.432447  0.738423  10871.448178  12112.142155  13604.927125  13196.186924
  7621.275  7621.280  1.000  117.532415  424.449627  60.635901  0.744053  11043.357807  12088.083346  13449.843451  13305.305258
  7625.694  7625.700  1.000  117.121971  424.220979  60.811219  0.747251  10933.611290  12181.163795  13383.677947  13187.144157
  7630.124  7630.130  1.000  118.079034  423.563710  60.913884  0.751790  11052.475439  12187.274429  13611.048904  13163.194797
  7634.575  7634.580  1.000  117.299104  422.907772  61.038741  0.761060  11017.592446  12098.188132  13467.903948  13023.018199
  7639.053  7639.050  1.000  118.138572  422.186106  61.141995  0.773369  10820.698390  12311.484000  13610.070816  13134.210293
  7643.536  7643.540  1.000  118.240684  421.502359  61.252433  0.786526  11000.973772  12242.483433  13468.023627  13127.246293
  7648.050  7648.050  1.000  118.248422  420.647532  61.330393  0.797036  10956.616555  11945.951429  13512.896401  13325.442384
  7652.577  7652.580  1.000  117.920976  419.763905  61.391330  0.804893  10813.665621  12131.269701  13566.059195  12987.975003
  7657.131  7657.130  1.000  117.986292  419.075991  61.499397  0.811899  10901.909508  11865.916050  13527.082044  13150.314407
  7661.699  7661.700  1.000  119.344888  418.310773  61.599686  0.816864  10965.277088  12182.427547  13552.136213  13223.411311
  7666.275  7666.280  1.000  119.976107  417.652587  61.716419  0.819642  10929.981397  12205.480603  13565.176781  13407.692670
  7670.887  7670.890  1.000  119.749333  416.871381  61.810564  0.821424  10929.981397  11905.064992  13677.330933  13407.692670
  7675.500  7675.510  1.000  119.421953  416.077848  61.906489  0.823765  10907.858876  12076.375414  13539.140766  13165.453982
  7680.154  7680.160  1.000  120.219325  415.346396  62.001025  0.826122  11073.576636  12017.273642  13646.329007  13195.483897
  7684.818  7684.820  1.000  120.213491  414.212933  62.049782  0.830822  10905.000347  12088.339809  13554.143156  13246.499500
  7689.499  7689.500  1.000  119.155646  414.215757  62.264542  0.841343  10959.647614  11915.142486  13555.261485  12926.094482
  7694.198  7694.200  1.000  120.595479  413.332810  62.344618  0.852507  10990.945532  12028.331316  13762.477877  13064.313690
  7698.913  7698.920  1.000  119.302213  412.502945  62.434634  0.863069  10846.128025  11842.038709  13489.100346  13035.247144
  7703.654  7703.660  1.000  120.621342  411.456453  62.489028  0.873102  10903.430194  11949.239165  13601.280983  13176.479305
  7708.406  7708.410  1.000  120.864557  410.426995  62.566306  0.882950  10841.875064  12085.456766  13566.348013  13112.396918
  7713.188  7713.190  1.000  120.497633  410.129931  62.719820  0.896716  10887.733166  11866.149533  13425.192514  13240.610555
  7717.990  7717.990  1.000  120.560419  409.139186  62.782886  0.908539  10923.253011  11919.250856  13571.343374  12912.144306
  7722.804  7722.800  1.000  120.250342  408.824066  62.954356  0.921459  10830.376238  11920.313993  13442.201022  12968.342448
  7727.635  7727.630  1.000  119.700552  407.887583  63.024007  0.930491  10903.042983  11683.016247  13384.154348  12854.155361
  7732.494  7732.490  1.000  120.530034  407.024966  63.104018  0.938537  10786.852204  11932.352245  13385.183442  12954.345266
  7737.363  7737.360  1.000  120.366001  406.173585  63.198651  0.946486  10655.715396  11986.413745  13251.954263  12995.406580
  7742.243  7742.250  1.000  121.452459  405.939049  63.382485  0.956284  10937.019016  11709.129912  13542.477120  13113.669897
  7747.157  7747.160  1.000  121.646016  405.134297  63.470466  0.965422  10937.019016  11895.312488  13364.120820  13086.520607
  7752.076  7752.090  1.000  121.340922  404.273113  63.555381  0.973512  10821.702156  11766.260384  13426.365035  13040.544795
