# XDI/1.0 BlueSky/1.11.0 BMM/2023-2.1-py310-tiled
# Beamline.name: BMM (06BM) -- Beamline for Materials Measurement (NIST)
# Beamline.xray_source: NSLS-II three-pole wiggler
# Beamline.collimation: paraboloid mirror, 5 nm Rh on 30 nm Pt
# Beamline.focusing: not in use
# Beamline.harmonic_rejection: flat mirror, Pt stripe, pitch = 7.0 mrad relative to beam
# Beamline.software: Bluesky 1.11.0, Ophyd 1.8.0, DataBroker 2.0.0b23, Python 3.10.8, 2023-2.1-py310-tiled
# Detector.I0: 10 cm N2
# Detector.I1: 25 cm N2
# Detector.I2: 25 cm N2
# Element.symbol: Zn
# Element.edge: K
# Element.reference: Zn
# Element.reference_material: Zn foil
# Facility.name: NSLS-II
# Facility.energy: 3.0
# Facility.current: 399.3
# Facility.mode: top-off
# Facility.GUP: 315355
# Facility.SAF: 313563
# Facility.cycle: 2024-1
# Mono.name: Si(111)
# Mono.d_spacing: 3.1354173
# Mono.encoder_resolution: 0.0000050 deg/ct
# Mono.angle_offset: 16.0891518 deg
# Mono.scan_mode: pseudo channel cut
# Mono.scan_type: step
# Mono.direction: forward in energy
# Sample.name: Zn2SiO4
# Sample.prep: powder on tape
# Sample.x: 113.234 mm
# Sample.y: 81.177 mm
# Sample.SDD_position: 205.000 mm
# Scan.experimenters: Bruce Ravel
# Scan.edge_energy: 9658.6
# Scan.start_time: 2024-03-21T14:02:01
# Scan.end_time: 2024-03-21T14:08:50
# Scan.transient_id: 5335
# Scan.uid: 63e0d858-4bc8-40ba-a151-9945ebe2e8cd
# Scan.hdf5file: None
# Scan.plot_hint: ln(I0/It)  --  ln($5/$6)
# Column.1: energy eV
# Column.2: requested_energy eV
# Column.3: measurement_time seconds
# Column.4: xmu 
# Column.5: I0 nA
# Column.6: It nA
# Column.7: Ir nA
# ///////////
# sample courtesy Martin Stennett, University of Sheffield
# -----------
# energy  requested_energy  measurement_time  xmu  I0  It  Ir
  9458.636  9458.600  0.500  2.323474  196.737265  19.267031  9.933970
  9468.621  9468.600  0.500  2.317372  196.192460  19.331276  9.991281
  9478.632  9478.600  0.500  2.311382  195.700233  19.398621  10.050372
  9488.649  9488.600  0.500  2.305275  195.184814  19.466050  10.109745
  9498.656  9498.600  0.500  2.299148  194.734193  19.540470  10.168517
  9508.662  9508.600  0.500  2.293240  194.175453  19.599852  10.223194
  9518.638  9518.600  0.500  2.287193  193.728989  19.673395  10.283872
  9528.624  9528.600  0.500  2.281345  193.583765  19.773956  10.360905
  9538.627  9538.600  0.500  2.275720  193.477627  19.874585  10.434248
  9548.616  9548.600  0.500  2.269798  193.115188  19.955191  10.496809
  9558.627  9558.600  0.500  2.264179  192.611448  20.015278  10.553066
  9568.628  9568.600  0.500  2.258889  192.087833  20.066744  10.602317
  9578.626  9578.600  0.500  2.254026  191.504036  20.103284  10.647403
  9588.578  9588.600  0.500  2.248804  191.146564  20.170799  10.702661
  9598.603  9598.600  0.500  2.244186  190.716041  20.218542  10.745919
  9608.606  9608.600  0.500  2.240721  190.186156  20.232349  10.777797
  9618.598  9618.600  0.500  2.238415  189.639055  20.220706  10.790232
  9628.600  9628.600  0.500  2.238583  189.158905  20.166129  10.775065
  9630.586  9630.600  0.500  2.239143  189.058692  20.144153  10.766190
  9632.582  9632.600  0.500  2.239764  188.885113  20.113176  10.751573
  9634.566  9634.600  0.500  2.240904  188.710061  20.071639  10.731081
  9636.568  9636.600  0.500  2.242470  188.473040  20.015051  10.699852
  9638.574  9638.600  0.500  2.244263  188.511201  19.983250  10.680240
  9640.565  9640.600  0.500  2.246683  188.409002  19.924137  10.646646
  9642.569  9642.600  0.500  2.249998  188.221690  19.838454  10.599581
  9644.578  9644.600  0.500  2.254285  188.093724  19.740168  10.541154
  9646.567  9646.600  0.500  2.259511  188.082032  19.636060  10.474863
  9648.574  9648.600  0.500  2.266762  187.559321  19.439998  10.356802
  9648.863  9648.900  0.500  2.268078  187.449882  19.403121  10.335280
  9649.157  9649.200  0.500  2.269570  187.440660  19.373227  10.316757
  9649.458  9649.500  0.500  2.270842  187.650359  19.370249  10.311548
  9649.768  9649.800  0.500  2.272395  187.701379  19.345460  10.294041
  9650.066  9650.100  0.500  2.273947  187.682589  19.313512  10.277172
  9650.376  9650.400  0.500  2.275497  187.759613  19.291518  10.261175
  9650.669  9650.700  0.500  2.277068  187.710995  19.256246  10.238440
  9650.967  9651.000  0.500  2.278901  187.674077  19.217204  10.212658
  9651.277  9651.300  0.500  2.280844  187.696558  19.182194  10.186912
  9651.575  9651.600  0.500  2.283042  187.552725  19.125418  10.158517
  9651.885  9651.900  0.500  2.285251  187.580320  19.086024  10.131743
  9652.178  9652.200  0.500  2.287361  187.617844  19.049597  10.105788
  9652.480  9652.500  0.500  2.289885  187.532123  18.992892  10.070353
  9652.790  9652.800  0.500  2.292239  187.488134  18.943797  10.039021
  9653.084  9653.100  0.500  2.294735  187.617579  18.909622  10.013927
  9653.386  9653.400  0.500  2.297486  187.531074  18.848973  9.974472
  9653.684  9653.700  0.500  2.300477  187.407633  18.780314  9.935252
  9653.986  9654.000  0.500  2.303416  187.470256  18.731446  9.900567
  9654.288  9654.300  0.500  2.306650  187.417427  18.665717  9.856762
  9654.590  9654.600  0.500  2.310017  187.421701  18.603399  9.813315
  9654.892  9654.900  0.500  2.313847  187.385312  18.528684  9.766206
  9655.186  9655.200  0.500  2.317680  187.325629  18.451929  9.714157
  9655.488  9655.500  0.500  2.322215  187.291102  18.365039  9.658806
  9655.778  9655.800  0.500  2.326723  187.332062  18.286444  9.602691
  9656.088  9656.100  0.500  2.331757  187.321743  18.193623  9.538556
  9656.382  9656.400  0.500  2.337219  187.114049  18.074448  9.465679
  9656.688  9656.700  0.500  2.342821  187.182783  17.980077  9.396423
  9656.987  9657.000  0.500  2.349027  187.274659  17.877605  9.320976
  9657.285  9657.300  0.500  2.355502  187.129146  17.748437  9.233495
  9657.591  9657.600  0.500  2.362607  187.266467  17.635703  9.147869
  9657.889  9657.900  0.500  2.370461  187.171344  17.488856  9.046705
  9658.199  9658.200  0.500  2.379334  187.039395  17.322137  8.929409
  9658.494  9658.500  0.500  2.388514  187.188670  17.177552  8.816302
  9658.796  9658.800  0.500  2.399082  187.202692  16.998247  8.676506
  9659.094  9659.100  0.500  2.410662  187.079694  16.791495  8.519757
  9659.400  9659.400  0.500  2.424124  187.134713  16.571846  8.339302
  9659.703  9659.700  0.500  2.438299  187.030170  16.329457  8.139857
  9660.001  9660.000  0.500  2.455015  187.111482  16.065743  7.897620
  9660.299  9660.300  0.500  2.473633  186.997888  15.759837  7.613586
  9660.602  9660.600  0.500  2.495466  187.049030  15.423685  7.266730
  9660.900  9660.900  0.500  2.519403  186.903156  15.047134  6.878148
  9661.199  9661.200  0.500  2.548039  187.023481  14.631771  6.427521
  9661.497  9661.500  0.500  2.580805  186.971631  14.156186  5.940137
  9661.800  9661.800  0.500  2.620565  187.030644  13.608669  5.428226
  9662.090  9662.100  0.500  2.666278  186.791393  12.983959  4.935522
  9662.396  9662.400  0.500  2.726297  186.921434  12.236114  4.418129
  9662.687  9662.700  0.500  2.797953  186.755070  11.379854  3.927620
  9662.993  9663.000  0.500  2.887237  186.884771  10.415088  3.445494
  9663.288  9663.300  0.500  2.990765  186.887269  9.390899  2.996997
  9663.595  9663.600  0.500  3.115432  186.748249  8.284026  2.557573
  9663.889  9663.900  0.500  3.270425  186.852167  7.098565  2.125979
  9664.192  9664.200  0.500  3.451019  186.807406  5.924279  1.729164
  9664.502  9664.500  0.500  3.673333  186.771816  4.742453  1.354137
  9664.789  9664.800  0.500  3.917611  186.628561  3.711774  1.039826
  9665.100  9665.100  0.500  4.216233  186.711021  2.754757  0.757835
  9665.406  9665.400  0.500  4.540502  186.725124  1.991992  0.539687
  9665.701  9665.700  0.500  4.886205  186.732443  1.409834  0.376650
  9665.996  9666.000  0.500  5.236463  186.685179  0.992986  0.262217
  9666.303  9666.300  0.500  5.591520  186.671636  0.696165  0.181329
  9666.597  9666.600  0.500  5.915881  186.675985  0.503331  0.129329
  9666.908  9666.900  0.500  6.185159  186.563344  0.384278  0.097294
  9667.199  9667.200  0.500  6.382801  186.497926  0.315253  0.078451
  9667.506  9667.500  0.500  6.505580  186.224744  0.278420  0.067967
  9667.796  9667.800  0.500  6.556304  186.203875  0.264620  0.063156
  9668.111  9668.100  0.500  6.561466  186.181160  0.263225  0.061691
  9668.390  9668.400  0.500  6.543182  186.129819  0.268008  0.062099
  9668.697  9668.700  0.500  6.514346  186.198326  0.275951  0.062912
  9669.000  9669.000  0.500  6.488220  186.286145  0.283389  0.063630
  9669.291  9669.300  0.500  6.467753  186.494030  0.289571  0.064085
  9669.590  9669.600  0.500  6.451677  186.428285  0.294160  0.064146
  9669.893  9669.900  0.500  6.439677  186.487647  0.297806  0.064195
  9670.196  9670.200  0.500  6.426500  186.507501  0.301789  0.064108
  9670.503  9670.500  0.500  6.410849  186.466706  0.306482  0.064512
  9670.794  9670.800  0.500  6.390119  186.441734  0.312860  0.065172
  9671.105  9671.100  0.500  6.363896  186.386391  0.321077  0.066455
  9671.400  9671.400  0.500  6.334460  186.298468  0.330513  0.067997
  9671.703  9671.700  0.500  6.303322  186.366822  0.341091  0.069929
  9671.998  9672.000  0.500  6.275799  186.312872  0.350508  0.071938
  9672.313  9672.300  0.500  6.252803  186.281824  0.358602  0.073821
  9672.604  9672.600  0.500  6.241179  186.202970  0.362641  0.075691
  9672.912  9672.900  0.500  6.240661  186.213134  0.362849  0.076499
  9673.203  9673.200  0.500  6.248835  186.212928  0.359894  0.076738
  9673.510  9673.500  0.500  6.266952  186.169086  0.353350  0.076702
  9673.801  9673.800  0.500  6.286320  186.190069  0.346611  0.076456
  9674.108  9674.100  0.500  6.307467  186.347629  0.339645  0.076216
  9674.395  9674.400  0.500  6.320221  186.291107  0.335239  0.076533
  9674.703  9674.700  0.500  6.324835  186.190684  0.333516  0.077225
  9674.994  9675.000  0.500  6.315358  186.294542  0.336880  0.078932
  9675.301  9675.300  0.500  6.294079  186.132880  0.343827  0.081557
  9675.592  9675.600  0.500  6.263214  186.215566  0.354762  0.084933
  9675.900  9675.900  0.500  6.222494  186.081420  0.369239  0.089072
  9676.195  9676.200  0.500  6.177251  186.182604  0.386539  0.093900
  9676.499  9676.500  0.500  6.128749  186.065918  0.405495  0.098858
  9676.790  9676.800  0.500  6.082789  185.987783  0.424388  0.103920
  9677.110  9677.100  0.500  6.036622  186.068988  0.444634  0.109222
  9677.397  9677.400  0.500  5.998934  186.065831  0.461703  0.113477
  9677.700  9677.700  0.500  5.965995  185.901210  0.476742  0.117523
  9678.000  9678.000  0.500  5.940837  186.018190  0.489196  0.120689
  9678.307  9678.300  0.500  5.918285  185.998731  0.500301  0.123539
  9678.595  9678.600  0.500  5.898228  185.873651  0.510094  0.126298
  9678.906  9678.900  0.500  5.875397  185.921998  0.522009  0.128832
  9679.206  9679.200  0.500  5.850448  185.868422  0.535043  0.132333
  9679.501  9679.500  0.500  5.820544  185.924388  0.551450  0.136380
  9679.801  9679.800  0.500  5.790617  185.724965  0.567593  0.140612
  9680.109  9680.100  0.500  5.757179  185.795228  0.587115  0.145709
  9680.400  9680.400  0.500  5.724982  185.802080  0.606349  0.150508
  9680.704  9680.700  0.500  5.694228  185.746051  0.625098  0.156161
  9681.003  9681.000  0.500  5.667389  185.769417  0.642182  0.161062
  9681.299  9681.300  0.500  5.644916  185.862748  0.657107  0.165370
  9681.591  9681.600  0.500  5.628091  185.716475  0.667731  0.168869
  9681.903  9681.900  0.500  5.617140  185.737801  0.675161  0.171920
  9682.186  9682.200  0.500  5.612450  185.729737  0.678305  0.173557
  9682.494  9682.500  0.500  5.615239  185.658487  0.676157  0.173680
  9682.790  9682.800  0.500  5.622335  185.798908  0.671884  0.173760
  9683.102  9683.100  0.500  5.634606  185.588657  0.662938  0.172287
  9683.397  9683.400  0.500  5.648817  185.643477  0.653777  0.170714
  9683.600  9683.600  0.500  5.659408  185.618848  0.646804  0.169697
  9684.605  9684.590  0.500  5.705345  185.723029  0.618110  0.163507
  9685.610  9685.590  0.500  5.702867  185.543493  0.619045  0.164518
  9686.640  9686.610  0.500  5.638428  185.574041  0.660358  0.175575
  9687.678  9687.660  0.500  5.536453  185.528075  0.731069  0.193800
  9688.744  9688.720  0.500  5.432269  185.471693  0.811098  0.214034
  9689.823  9689.800  0.500  5.338691  185.349288  0.890076  0.233055
  9690.915  9690.900  0.500  5.250228  185.329907  0.972300  0.251777
  9692.035  9692.020  0.500  5.165036  185.200240  1.058022  0.270649
  9693.180  9693.160  0.500  5.094023  185.848954  1.139866  0.287854
  9694.333  9694.310  0.500  5.048913  185.717622  1.191620  0.297128
  9695.506  9695.490  0.500  5.024722  185.653004  1.220374  0.300490
  9696.697  9696.680  0.500  5.016895  185.711076  1.230349  0.299523
  9697.916  9697.900  0.500  5.019938  185.574688  1.225709  0.296064
  9699.155  9699.130  0.500  5.027431  185.560443  1.216466  0.292379
  9700.391  9700.380  0.500  5.037311  185.410217  1.203531  0.288160
  9701.676  9701.650  0.500  5.043629  185.407021  1.195931  0.286727
  9702.945  9702.940  0.500  5.053357  185.289940  1.183605  0.285441
  9704.268  9704.250  0.500  5.073821  185.200423  1.159070  0.282063
  9705.603  9705.580  0.500  5.101128  185.059103  1.126986  0.276938
  9706.950  9706.930  0.500  5.129595  184.988496  1.094939  0.271483
  9708.310  9708.300  0.500  5.165334  184.923872  1.056129  0.263523
  9709.679  9709.680  0.500  5.212287  183.323277  0.998965  0.250054
  9711.097  9711.090  0.500  5.276569  183.785080  0.939130  0.235465
  9712.528  9712.510  0.500  5.350791  184.972631  0.877584  0.219609
  9713.967  9713.950  0.500  5.427194  184.822926  0.812373  0.202174
  9715.407  9715.410  0.500  5.495109  184.753686  0.758748  0.188031
  9716.900  9716.890  0.500  5.553706  184.584435  0.714910  0.176884
  9718.397  9718.390  0.500  5.596943  184.550916  0.684533  0.169097
  9719.932  9719.910  0.500  5.628217  184.420973  0.662990  0.163890
  9721.455  9721.450  0.500  5.649342  184.394835  0.649039  0.160994
  9723.012  9723.010  0.500  5.657471  184.290526  0.643420  0.159771
  9724.605  9724.580  0.500  5.657632  184.209172  0.643032  0.159733
  9726.195  9726.180  0.500  5.655468  184.057855  0.643896  0.159949
  9727.814  9727.790  0.500  5.652141  184.054276  0.646029  0.160307
  9729.446  9729.430  0.500  5.648755  183.967760  0.647916  0.160377
  9731.091  9731.080  0.500  5.642291  183.869559  0.651769  0.160739
  9732.778  9732.750  0.500  5.631268  183.903430  0.659115  0.161720
  9734.460  9734.440  0.500  5.616665  183.808409  0.668465  0.163063
  9736.152  9736.150  0.500  5.599389  183.626883  0.679442  0.164729
  9737.894  9737.880  0.500  5.580867  183.562050  0.691900  0.166795
  9739.644  9739.630  0.500  5.560131  183.525006  0.706254  0.170060
  9741.403  9741.390  0.500  5.539026  183.305940  0.720457  0.173390
  9743.179  9743.180  0.500  5.519596  183.166685  0.734034  0.177565
  9745.001  9744.980  0.500  5.501045  183.182216  0.747842  0.182235
  9746.820  9746.810  0.500  5.483040  183.024695  0.760774  0.187092
  9748.659  9748.650  0.500  5.462627  183.044119  0.776545  0.193161
  9750.516  9750.510  0.500  5.436676  182.942680  0.796520  0.199611
  9752.415  9752.390  0.500  5.409753  182.875235  0.817954  0.206444
  9754.306  9754.290  0.500  5.384933  182.756921  0.837968  0.212584
  9756.215  9756.210  0.500  5.364716  182.636183  0.854516  0.217523
  9758.169  9758.150  0.500  5.347778  182.501662  0.868473  0.222079
  9760.137  9760.110  0.500  5.334022  182.373788  0.879885  0.225971
  9762.085  9762.080  0.500  5.322919  182.178597  0.888757  0.229123
  9764.091  9764.080  0.500  5.314206  182.219631  0.896736  0.231486
  9766.119  9766.090  0.500  5.307612  182.114101  0.902146  0.232078
  9768.131  9768.120  0.500  5.303087  181.937992  0.905362  0.231894
  9770.190  9770.180  0.500  5.304599  181.838089  0.903497  0.230318
  9772.274  9772.250  0.500  5.313759  181.370072  0.892955  0.226317
  9774.347  9774.340  0.500  5.331823  180.190755  0.871267  0.219853
  9776.461  9776.450  0.500  5.348737  181.790795  0.864261  0.216618
  9778.610  9778.580  0.500  5.363686  181.535819  0.850243  0.211418
  9780.744  9780.720  0.500  5.372151  181.266929  0.841827  0.208118
  9782.903  9782.890  0.500  5.375069  181.102808  0.838615  0.206526
  9785.096  9785.080  0.500  5.378126  179.214412  0.827337  0.203462
  9787.311  9787.280  0.500  5.379767  181.072009  0.834542  0.205340
  9789.510  9789.500  0.500  5.382957  180.894478  0.831068  0.205221
  9791.764  9791.750  0.500  5.385802  178.582895  0.818118  0.202514
  9794.032  9794.010  0.500  5.390699  180.768889  0.824087  0.204475
  9796.300  9796.290  0.500  5.394918  180.534359  0.819553  0.203923
  9798.612  9798.590  0.500  5.401631  180.382606  0.813385  0.202832
  9800.941  9800.910  0.500  5.409395  180.206944  0.806309  0.201948
  9803.267  9803.250  0.500  5.416853  177.693442  0.789155  0.198622
  9805.619  9805.600  0.500  5.422168  180.276843  0.796383  0.201181
  9808.014  9807.980  0.500  5.423198  180.030548  0.794477  0.201843
  9810.393  9810.370  0.500  5.421512  179.869587  0.795106  0.203272
  9812.828  9812.790  0.500  5.420056  179.779889  0.795867  0.204427
  9815.239  9815.220  0.500  5.418515  179.484035  0.795783  0.205843
  9817.688  9817.670  0.500  5.414456  179.458648  0.798907  0.207994
  9820.177  9820.150  0.500  5.409720  178.631990  0.799002  0.209050
  9822.654  9822.640  0.500  5.405972  179.271568  0.804873  0.210750
  9825.174  9825.150  0.500  5.400514  179.171000  0.808824  0.211404
  9827.704  9827.670  0.500  5.393994  178.970568  0.813204  0.211380
  9830.235  9830.220  0.500  5.387650  178.360563  0.815591  0.211078
  9832.818  9832.790  0.500  5.383956  178.701167  0.820172  0.211369
  9835.381  9835.370  0.500  5.380659  177.573788  0.817690  0.210258
  9837.987  9837.980  0.500  5.376592  178.386789  0.824781  0.212067
  9840.629  9840.600  0.500  5.367496  178.297170  0.831899  0.214170
  9843.250  9843.250  0.500  5.354625  177.777312  0.840218  0.215976
  9845.936  9845.910  0.500  5.340311  177.941006  0.853117  0.219073
  9848.599  9848.590  0.500  5.325060  177.997575  0.866502  0.222513
  9851.309  9851.290  0.500  5.313624  177.801761  0.875504  0.224818
  9854.037  9854.010  0.500  5.306384  177.614729  0.880939  0.225992
  9856.776  9856.750  0.500  5.301046  177.447822  0.884821  0.226618
  9859.511  9859.500  0.500  5.292987  177.404816  0.891765  0.228565
  9862.286  9862.280  0.500  5.284173  177.242346  0.898836  0.230385
  9865.105  9865.070  0.500  5.275619  176.940150  0.905011  0.232520
  9867.909  9867.890  0.500  5.268193  176.976379  0.911944  0.234484
  9870.752  9870.720  0.500  5.265012  176.724396  0.913547  0.235694
  9873.592  9873.570  0.500  5.263717  176.627570  0.914230  0.237120
  9876.481  9876.450  0.500  5.263916  176.105901  0.911348  0.237669
  9879.367  9879.340  0.500  5.265116  172.976962  0.894082  0.234128
  9882.263  9882.250  0.500  5.264176  176.121510  0.911192  0.239991
  9885.187  9885.170  0.500  5.265116  176.116485  0.910310  0.240675
  9888.125  9888.120  0.500  5.268975  175.960307  0.905999  0.241044
  9891.106  9891.090  0.500  5.273822  175.681638  0.900190  0.240202
  9894.090  9894.070  0.500  5.277650  175.563430  0.896148  0.239706
  9897.110  9897.080  0.500  5.280502  175.425324  0.892893  0.238916
  9900.118  9900.100  0.500  5.282327  175.192304  0.890081  0.238311
  9903.163  9903.150  0.500  5.281463  175.003224  0.889889  0.237766
  9906.235  9906.210  0.500  5.278916  174.957648  0.891926  0.238075
  9909.308  9909.290  0.500  5.275484  174.787216  0.894121  0.238490
  9912.401  9912.390  0.500  5.269083  174.635106  0.899079  0.239837
  9915.526  9915.510  0.500  5.260341  174.335415  0.905417  0.241453
  9918.678  9918.650  0.500  5.251813  174.192297  0.912422  0.243450
  9921.819  9921.800  0.500  5.244710  174.053366  0.918193  0.245045
  9924.988  9924.980  0.500  5.237637  173.839055  0.923571  0.246440
  9928.184  9928.170  0.500  5.232432  173.418020  0.926143  0.247212
  9931.396  9931.390  0.500  5.229860  168.709677  0.903318  0.241490
  9934.643  9934.620  0.500  5.227853  173.679629  0.931797  0.249446
  9937.872  9937.870  0.500  5.226784  173.391073  0.931243  0.249368
  9941.158  9941.150  0.500  5.225265  173.225403  0.931768  0.249983
  9944.459  9944.440  0.500  5.221547  173.016814  0.934113  0.250993
  9947.771  9947.750  0.500  5.215171  172.846870  0.939164  0.252963
  9951.086  9951.070  0.500  5.207354  172.623892  0.945313  0.255086
  9954.428  9954.420  0.500  5.199526  172.404603  0.951532  0.257211
  9957.816  9957.790  0.500  5.192600  167.966211  0.933479  0.253179
  9961.188  9961.170  0.500  5.186095  171.743562  0.960700  0.261342
  9964.602  9964.580  0.500  5.179312  171.664253  0.966792  0.264167
  9968.014  9968.000  0.500  5.171663  171.436442  0.972923  0.266665
  9971.466  9971.450  0.500  5.167369  169.112647  0.963865  0.265299
  9974.922  9974.910  0.500  5.160575  171.337833  0.983204  0.271040
  9978.405  9978.390  0.500  5.155508  171.084716  0.986739  0.272619
  9981.904  9981.890  0.500  5.150037  170.661235  0.989697  0.273675
  9985.432  9985.410  0.500  5.146614  167.550367  0.974988  0.269835
  9988.962  9988.950  0.500  5.137929  170.574273  1.001243  0.277472
  9992.520  9992.500  0.500  5.130237  170.244031  1.007020  0.279642
  9996.103  9996.080  0.500  5.123337  169.554040  1.009883  0.280696
  9999.701  9999.680  0.500  5.117256  169.957850  1.018463  0.283352
  10003.319  10003.290  0.500  5.112461  169.770841  1.022232  0.284559
  10006.935  10006.920  0.500  5.109334  169.642447  1.024658  0.285470
  10010.615  10010.580  0.500  5.105945  167.316836  1.014042  0.282969
  10014.259  10014.250  0.500  5.104754  168.704257  1.023669  0.286276
  10017.966  10017.940  0.500  5.101485  168.697710  1.026981  0.287103
  10021.658  10021.650  0.500  5.098206  168.553228  1.029472  0.288100
  10025.406  10025.380  0.500  5.095588  168.497857  1.031831  0.288999
  10029.152  10029.120  0.500  5.093622  168.228055  1.032206  0.289573
  10032.914  10032.890  0.500  5.091136  168.018284  1.033485  0.290074
  10036.705  10036.680  0.500  5.088292  166.754149  1.028630  0.289781
  10040.507  10040.480  0.500  5.084979  168.010275  1.039819  0.293197
  10044.339  10044.310  0.500  5.080281  167.714058  1.042873  0.294512
  10048.169  10048.150  0.500  5.075191  167.308281  1.045658  0.296100
  10052.042  10052.010  0.500  5.069784  167.142513  1.050286  0.298260
  10055.922  10055.890  0.500  5.064928  166.900690  1.053872  0.299761
  10059.832  10059.790  0.500  5.061049  166.512137  1.055505  0.301111
  10063.762  10063.710  0.500  5.056007  166.413477  1.060211  0.303313
  10067.682  10067.650  0.500  5.051895  166.135363  1.062801  0.304851
  10071.657  10071.610  0.500  5.046323  166.072548  1.068336  0.306733
  10075.601  10075.580  0.500  5.041077  165.745437  1.071840  0.308499
  10079.614  10079.580  0.500  5.034082  165.543056  1.078045  0.310726
  10083.626  10083.590  0.500  5.027390  165.390776  1.084285  0.313155
  10087.659  10087.630  0.500  5.021318  165.462196  1.091360  0.315887
  10091.726  10091.680  0.500  5.013182  163.460719  1.086967  0.314905
  10095.783  10095.750  0.500  5.007846  165.084982  1.103640  0.320550
  10099.878  10099.840  0.500  5.002096  164.858389  1.108482  0.322199
  10104.008  10103.950  0.500  4.995850  164.672981  1.114172  0.324679
  10108.111  10108.080  0.500  4.990436  164.315534  1.117789  0.326316
  10112.252  10112.230  0.500  4.985158  164.193384  1.122869  0.327950
  10116.419  10116.390  0.500  4.980483  163.876409  1.125952  0.329718
  10120.607  10120.580  0.500  4.975449  163.631263  1.129943  0.330880
  10124.812  10124.780  0.500  4.970564  163.478570  1.134416  0.333057
  10129.038  10129.010  0.500  4.965237  163.154071  1.138212  0.334200
  10133.282  10133.250  0.500  4.959733  162.915882  1.142822  0.336499
  10137.551  10137.510  0.500  4.954471  162.702942  1.147350  0.338046
  10141.814  10141.790  0.500  4.948659  162.422133  1.152046  0.340035
  10146.127  10146.090  0.500  4.943189  162.169394  1.156563  0.342103
  10150.433  10150.410  0.500  4.938368  161.746399  1.159121  0.343890
  10154.771  10154.750  0.500  4.932521  161.572971  1.164668  0.345996
  10159.139  10159.110  0.500  4.927860  161.450014  1.169218  0.348164
  10163.524  10163.490  0.500  4.922574  161.098437  1.172855  0.349989
  10167.895  10167.880  0.500  4.918206  160.856487  1.176221  0.351695
  10172.365  10172.300  0.500  4.913517  160.699113  1.180592  0.353458
  10176.770  10176.730  0.500  4.908935  160.484325  1.184429  0.355599
  10181.216  10181.180  0.500  4.904617  160.215649  1.187564  0.357178
  10185.729  10185.650  0.500  4.900077  159.893967  1.190572  0.358887
  10190.191  10190.140  0.500  4.895394  159.603804  1.193990  0.360469
  10194.680  10194.650  0.500  4.890272  159.366390  1.198336  0.362155
  10199.264  10199.180  0.500  4.885145  159.049399  1.202100  0.364305
  10203.711  10203.730  0.500  4.880867  158.760945  1.205063  0.365858
  10208.294  10208.300  0.500  4.876133  158.468856  1.208554  0.367607
  10212.912  10212.880  0.500  4.871623  158.345443  1.213072  0.369800
  10217.490  10217.490  0.500  4.866033  157.973218  1.217004  0.371388
  10222.189  10222.110  0.500  4.861810  157.740697  1.220356  0.373371
  10226.734  10226.760  0.500  4.856680  157.486537  1.224656  0.375031
  10231.410  10231.420  0.500  4.851282  157.203770  1.229074  0.377339
  10236.082  10236.100  0.500  4.845897  156.905049  1.233362  0.379078
  10240.798  10240.800  0.500  4.840054  156.583613  1.238049  0.381189
  10245.592  10245.520  0.500  4.834891  156.369338  1.242753  0.382998
  10250.227  10250.260  0.500  4.828571  156.043921  1.248030  0.385491
  10255.052  10255.010  0.500  4.822908  155.846063  1.253526  0.387983
  10259.746  10259.790  0.500  4.816777  155.560809  1.258927  0.390294
  10264.640  10264.590  0.500  4.811240  155.341704  1.264134  0.392754
  10269.466  10269.400  0.500  4.805417  155.017739  1.268864  0.395116
  10274.292  10274.230  0.500  4.799701  154.605720  1.272747  0.396836
  10279.058  10279.090  0.500  4.793980  154.323298  1.277710  0.399378
  10283.962  10283.960  0.500  4.788225  154.136896  1.283532  0.401748
  10288.824  10288.850  0.500  4.782996  153.711014  1.286697  0.403480
  10293.788  10293.760  0.500  4.777385  153.533430  1.292441  0.406333
  10298.669  10298.690  0.500  4.772107  153.241979  1.296815  0.408594
